SpectraSuite Data File
++++++++++++++++++++++++++++++++++++
Date: Fri Jan 26 11:57:23 CET 2024
User: TAMINATOR
Dark Spectrum Present: No
Reference Spectrum Present: No
Number of Sampled Component Spectra: 1
Spectrometers: FLMS04432
Integration Time (usec): 1000 (FLMS04432)
Spectra Averaged: 1 (FLMS04432)
Boxcar Smoothing: 0 (FLMS04432)
Correct for Electrical Dark: No (FLMS04432)
Strobe/Lamp Enabled: No (FLMS04432)
Correct for Detector Non-linearity: No (FLMS04432)
Correct for Stray Light: No (FLMS04432)
Number of Pixels in Processed Spectrum: 2048
>>>>>Begin Processed Spectral Data<<<<<
188.46	2332.56
188.85	2332.56
189.24	2332.56
189.63	2286.44
190.02	2240.33
190.41	2322.85
190.80	2220.91
191.19	2354.41
191.58	2252.46
191.96	2354.41
192.35	2342.27
192.74	2330.13
193.13	2349.55
193.52	2376.25
193.91	2402.95
194.30	2483.05
194.69	2483.05
195.08	2512.18
195.47	2519.46
195.86	2582.56
196.24	2626.25
196.63	2587.42
197.02	2665.09
197.41	2626.25
197.80	2638.39
198.19	2674.80
198.58	2626.25
198.96	2713.63
199.35	2679.65
199.74	2669.94
200.13	2660.24
200.52	2718.49
200.91	2674.80
201.29	2750.04
201.68	2774.32
202.07	2754.90
202.46	2754.90
202.85	2684.51
203.24	2750.04
203.62	2747.62
204.01	2718.49
204.40	2801.01
204.79	2728.20
205.17	2662.66
205.56	2648.10
205.95	2779.17
206.34	2708.78
206.73	2652.95
207.11	2720.92
207.50	2679.65
207.89	2696.64
208.28	2716.06
208.66	2706.35
209.05	2730.62
209.44	2784.02
209.83	2679.65
210.21	2645.67
210.60	2699.07
210.99	2696.64
211.37	2660.24
211.76	2735.48
212.15	2723.34
212.54	2706.35
212.92	2733.05
213.31	2691.79
213.70	2728.20
214.08	2679.65
214.47	2679.65
214.86	2660.24
215.24	2677.23
215.63	2652.95
216.02	2730.62
216.40	2735.48
216.79	2667.52
217.18	2762.18
217.56	2696.64
217.95	2730.62
218.33	2694.22
218.72	2674.80
219.11	2752.47
219.49	2684.51
219.88	2764.61
220.27	2713.63
220.65	2747.62
221.04	2703.93
221.42	2689.36
221.81	2694.22
222.20	2723.34
222.58	2696.64
222.97	2640.82
223.35	2711.21
223.74	2762.18
224.13	2718.49
224.51	2699.07
224.90	2691.79
225.28	2667.52
225.67	2645.67
226.05	2769.46
226.44	2745.19
226.82	2682.08
227.21	2660.24
227.59	2674.80
227.98	2623.83
228.36	2689.36
228.75	2672.37
229.14	2667.52
229.52	2747.62
229.91	2667.52
230.29	2706.35
230.68	2691.79
231.06	2703.93
231.45	2735.48
231.83	2694.22
232.21	2660.24
232.60	2701.50
232.98	2699.07
233.37	2703.93
233.75	2752.47
234.14	2706.35
234.52	2740.33
234.91	2750.04
235.29	2781.60
235.68	2786.45
236.06	2757.32
236.44	2720.92
236.83	2740.33
237.21	2606.84
237.60	2716.06
237.98	2662.66
238.37	2677.23
238.75	2730.62
239.13	2689.36
239.52	2679.65
239.90	2720.92
240.29	2665.09
240.67	2735.48
241.05	2657.81
241.44	2696.64
241.82	2638.39
242.20	2752.47
242.59	2742.76
242.97	2703.93
243.35	2742.76
243.74	2708.78
244.12	2757.32
244.51	2737.91
244.89	2703.93
245.27	2708.78
245.66	2754.90
246.04	2696.64
246.42	2701.50
246.80	2737.91
247.19	2677.23
247.57	2708.78
247.95	2684.51
248.34	2701.50
248.72	2696.64
249.10	2742.76
249.49	2657.81
249.87	2689.36
250.25	2788.88
250.63	2747.62
251.02	2708.78
251.40	2679.65
251.78	2759.75
252.16	2667.52
252.55	2686.94
252.93	2716.06
253.31	2784.02
253.69	2730.62
254.08	2752.47
254.46	2776.74
254.84	2786.45
255.22	2684.51
255.60	2779.17
255.99	2747.62
256.37	2716.06
256.75	2784.02
257.13	2733.05
257.51	2740.33
257.90	2774.32
258.28	2742.76
258.66	2723.34
259.04	2762.18
259.42	2614.12
259.81	2767.03
260.19	2679.65
260.57	2713.63
260.95	2742.76
261.33	2725.77
261.71	2818.00
262.09	2764.61
262.48	2689.36
262.86	2742.76
263.24	2669.94
263.62	2672.37
264.00	2689.36
264.38	2750.04
264.76	2718.49
265.14	2725.77
265.53	2686.94
265.91	2716.06
266.29	2750.04
266.67	2711.21
267.05	2713.63
267.43	2631.11
267.81	2752.47
268.19	2735.48
268.57	2686.94
268.95	2742.76
269.33	2648.10
269.71	2771.89
270.09	2762.18
270.47	2728.20
270.85	2703.93
271.23	2713.63
271.62	2742.76
272.00	2699.07
272.38	2784.02
272.76	2767.03
273.14	2796.16
273.52	2762.18
273.90	2774.32
274.28	2733.05
274.66	2686.94
275.04	2735.48
275.42	2708.78
275.80	2767.03
276.18	2713.63
276.55	2776.74
276.93	2733.05
277.31	2740.33
277.69	2740.33
278.07	2737.91
278.45	2701.50
278.83	2665.09
279.21	2720.92
279.59	2672.37
279.97	2686.94
280.35	2813.15
280.73	2728.20
281.11	2725.77
281.49	2711.21
281.87	2708.78
282.25	2733.05
282.62	2667.52
283.00	2747.62
283.38	2730.62
283.76	2745.19
284.14	2694.22
284.52	2718.49
284.90	2662.66
285.28	2657.81
285.65	2713.63
286.03	2728.20
286.41	2696.64
286.79	2818.00
287.17	2723.34
287.55	2786.45
287.93	2750.04
288.30	2708.78
288.68	2716.06
289.06	2718.49
289.44	2769.46
289.82	2667.52
290.20	2682.08
290.57	2767.03
290.95	2774.32
291.33	2779.17
291.71	2723.34
292.09	2740.33
292.46	2686.94
292.84	2660.24
293.22	2754.90
293.60	2757.32
293.97	2725.77
294.35	2757.32
294.73	2720.92
295.11	2752.47
295.48	2764.61
295.86	2810.72
296.24	2730.62
296.62	2677.23
296.99	2752.47
297.37	2796.16
297.75	2796.16
298.13	2788.88
298.50	2854.41
298.88	2708.78
299.26	2798.59
299.63	2827.71
300.01	2735.48
300.39	2706.35
300.77	2677.23
301.14	2754.90
301.52	2764.61
301.90	2742.76
302.27	2781.60
302.65	2723.34
303.03	2718.49
303.40	2689.36
303.78	2771.89
304.16	2752.47
304.53	2791.31
304.91	2779.17
305.28	2701.50
305.66	2718.49
306.04	2752.47
306.41	2723.34
306.79	2711.21
307.17	2691.79
307.54	2788.88
307.92	2679.65
308.29	2665.09
308.67	2745.19
309.05	2774.32
309.42	2730.62
309.80	2720.92
310.17	2786.45
310.55	2747.62
310.92	2737.91
311.30	2677.23
311.68	2735.48
312.05	2701.50
312.43	2764.61
312.80	2677.23
313.18	2703.93
313.55	2820.43
313.93	2725.77
314.30	2742.76
314.68	2674.80
315.05	2718.49
315.43	2713.63
315.80	2762.18
316.18	2728.20
316.55	2674.80
316.93	2735.48
317.30	2713.63
317.68	2723.34
318.05	2813.15
318.43	2723.34
318.80	2796.16
319.18	2825.29
319.55	2801.01
319.93	2771.89
320.30	2776.74
320.68	2740.33
321.05	2750.04
321.43	2674.80
321.80	2728.20
322.17	2730.62
322.55	2759.75
322.92	2730.62
323.30	2684.51
323.67	2720.92
324.05	2711.21
324.42	2730.62
324.79	2769.46
325.17	2767.03
325.54	2754.90
325.92	2720.92
326.29	2759.75
326.66	2788.88
327.04	2793.73
327.41	2723.34
327.78	2720.92
328.16	2774.32
328.53	2720.92
328.91	2752.47
329.28	2703.93
329.65	2832.57
330.03	2689.36
330.40	2759.75
330.77	2781.60
331.15	2786.45
331.52	2762.18
331.89	2769.46
332.27	2701.50
332.64	2801.01
333.01	2750.04
333.38	2757.32
333.76	2774.32
334.13	2720.92
334.50	2728.20
334.88	2754.90
335.25	2774.32
335.62	2762.18
335.99	2730.62
336.37	2759.75
336.74	2694.22
337.11	2849.56
337.48	2699.07
337.86	2774.32
338.23	2842.28
338.60	2771.89
338.97	2767.03
339.35	2759.75
339.72	2674.80
340.09	2781.60
340.46	2786.45
340.84	2798.59
341.21	2730.62
341.58	2767.03
341.95	2737.91
342.32	2788.88
342.70	2740.33
343.07	2672.37
343.44	2745.19
343.81	2813.15
344.18	2735.48
344.55	2725.77
344.93	2750.04
345.30	2791.31
345.67	2728.20
346.04	2757.32
346.41	2776.74
346.78	2754.90
347.15	2752.47
347.53	2696.64
347.90	2779.17
348.27	2725.77
348.64	2796.16
349.01	2791.31
349.38	2771.89
349.75	2769.46
350.12	2669.94
350.49	2720.92
350.87	2757.32
351.24	2757.32
351.61	2735.48
351.98	2735.48
352.35	2881.11
352.72	2779.17
353.09	2774.32
353.46	2611.69
353.83	2723.34
354.20	2728.20
354.57	2696.64
354.94	2694.22
355.31	2774.32
355.68	2742.76
356.05	2677.23
356.42	2786.45
356.79	2830.14
357.16	2684.51
357.53	2708.78
357.90	2699.07
358.27	2677.23
358.64	2762.18
359.01	2757.32
359.38	2672.37
359.75	2735.48
360.12	2752.47
360.49	2723.34
360.86	2735.48
361.23	2808.30
361.60	2752.47
361.97	2723.34
362.34	2703.93
362.71	2703.93
363.08	2730.62
363.45	2801.01
363.82	2737.91
364.19	2708.78
364.56	2713.63
364.93	2672.37
365.30	2747.62
365.66	2779.17
366.03	2764.61
366.40	2767.03
366.77	2764.61
367.14	2740.33
367.51	2725.77
367.88	2728.20
368.25	2745.19
368.62	2791.31
368.98	2720.92
369.35	2713.63
369.72	2788.88
370.09	2776.74
370.46	2781.60
370.83	2788.88
371.20	2781.60
371.56	2701.50
371.93	2725.77
372.30	2737.91
372.67	2769.46
373.04	2689.36
373.41	2856.84
373.77	2703.93
374.14	2735.48
374.51	2750.04
374.88	2745.19
375.25	2725.77
375.61	2733.05
375.98	2694.22
376.35	2754.90
376.72	2796.16
377.08	2699.07
377.45	2728.20
377.82	2742.76
378.19	2747.62
378.55	2730.62
378.92	2779.17
379.29	2754.90
379.66	2674.80
380.02	2754.90
380.39	2745.19
380.76	2769.46
381.13	2810.72
381.49	2718.49
381.86	2781.60
382.23	2742.76
382.59	2740.33
382.96	2786.45
383.33	2779.17
383.70	2752.47
384.06	2767.03
384.43	2750.04
384.80	2716.06
385.16	2686.94
385.53	2742.76
385.90	2716.06
386.26	2701.50
386.63	2747.62
387.00	2703.93
387.36	2771.89
387.73	2703.93
388.09	2784.02
388.46	2730.62
388.83	2752.47
389.19	2757.32
389.56	2771.89
389.93	2752.47
390.29	2720.92
390.66	2708.78
391.02	2725.77
391.39	2684.51
391.75	2752.47
392.12	2788.88
392.49	2827.71
392.85	2737.91
393.22	2733.05
393.58	2723.34
393.95	2788.88
394.31	2745.19
394.68	2706.35
395.05	2767.03
395.41	2752.47
395.78	2813.15
396.14	2776.74
396.51	2703.93
396.87	2740.33
397.24	2791.31
397.60	2791.31
397.97	2779.17
398.33	2757.32
398.70	2784.02
399.06	2776.74
399.43	2830.14
399.79	2706.35
400.16	2735.48
400.52	2781.60
400.89	2716.06
401.25	2684.51
401.62	2684.51
401.98	2767.03
402.35	2747.62
402.71	2796.16
403.07	2786.45
403.44	2767.03
403.80	2720.92
404.17	2827.71
404.53	2798.59
404.90	2706.35
405.26	2822.86
405.62	2740.33
405.99	2779.17
406.35	2677.23
406.72	2728.20
407.08	2718.49
407.44	2706.35
407.81	2750.04
408.17	2703.93
408.54	2701.50
408.90	2808.30
409.26	2776.74
409.63	2769.46
409.99	2733.05
410.35	2754.90
410.72	2784.02
411.08	2788.88
411.44	2769.46
411.81	2805.87
412.17	2805.87
412.53	2708.78
412.90	2725.77
413.26	2735.48
413.62	2730.62
413.99	2774.32
414.35	2740.33
414.71	2757.32
415.08	2747.62
415.44	2720.92
415.80	2728.20
416.16	2784.02
416.53	2774.32
416.89	2730.62
417.25	2764.61
417.61	2769.46
417.98	2742.76
418.34	2771.89
418.70	2725.77
419.06	2762.18
419.43	2716.06
419.79	2791.31
420.15	2737.91
420.51	2737.91
420.88	2713.63
421.24	2791.31
421.60	2747.62
421.96	2856.84
422.32	2716.06
422.69	2669.94
423.05	2771.89
423.41	2750.04
423.77	2720.92
424.13	2801.01
424.50	2725.77
424.86	2786.45
425.22	2740.33
425.58	2764.61
425.94	2791.31
426.30	2737.91
426.67	2754.90
427.03	2672.37
427.39	2728.20
427.75	2786.45
428.11	2725.77
428.47	2694.22
428.83	2730.62
429.19	2745.19
429.56	2759.75
429.92	2752.47
430.28	2815.58
430.64	2769.46
431.00	2762.18
431.36	2774.32
431.72	2825.29
432.08	2701.50
432.44	2667.52
432.80	2747.62
433.16	2713.63
433.52	2740.33
433.89	2735.48
434.25	2669.94
434.61	2798.59
434.97	2723.34
435.33	2798.59
435.69	2781.60
436.05	2725.77
436.41	2784.02
436.77	2728.20
437.13	2808.30
437.49	2665.09
437.85	2752.47
438.21	2674.80
438.57	2701.50
438.93	2740.33
439.29	2703.93
439.65	2708.78
440.01	2694.22
440.37	2788.88
440.73	2711.21
441.09	2733.05
441.45	2745.19
441.81	2820.43
442.16	2735.48
442.52	2798.59
442.88	2747.62
443.24	2757.32
443.60	2839.85
443.96	2776.74
444.32	2774.32
444.68	2754.90
445.04	2706.35
445.40	2699.07
445.76	2784.02
446.12	2713.63
446.48	2742.76
446.83	2781.60
447.19	2691.79
447.55	2825.29
447.91	2703.93
448.27	2771.89
448.63	2718.49
448.99	2750.04
449.34	2793.73
449.70	2771.89
450.06	2796.16
450.42	2745.19
450.78	2706.35
451.14	2733.05
451.50	2703.93
451.85	2788.88
452.21	2742.76
452.57	2767.03
452.93	2723.34
453.29	2684.51
453.64	2750.04
454.00	2708.78
454.36	2764.61
454.72	2689.36
455.08	2752.47
455.43	2716.06
455.79	2837.42
456.15	2771.89
456.51	2701.50
456.86	2742.76
457.22	2718.49
457.58	2638.39
457.94	2776.74
458.29	2798.59
458.65	2747.62
459.01	2686.94
459.37	2669.94
459.72	2764.61
460.08	2769.46
460.44	2793.73
460.79	2752.47
461.15	2779.17
461.51	2757.32
461.86	2793.73
462.22	2786.45
462.58	2776.74
462.94	2745.19
463.29	2750.04
463.65	2737.91
464.01	2720.92
464.36	2754.90
464.72	2713.63
465.08	2774.32
465.43	2774.32
465.79	2745.19
466.14	2776.74
466.50	2713.63
466.86	2733.05
467.21	2737.91
467.57	2742.76
467.93	2754.90
468.28	2703.93
468.64	2737.91
468.99	2691.79
469.35	2752.47
469.71	2699.07
470.06	2854.41
470.42	2827.71
470.77	2682.08
471.13	2767.03
471.48	2740.33
471.84	2774.32
472.20	2764.61
472.55	2754.90
472.91	2784.02
473.26	2730.62
473.62	2776.74
473.97	2742.76
474.33	2757.32
474.68	2747.62
475.04	2788.88
475.39	2750.04
475.75	2757.32
476.10	2774.32
476.46	2745.19
476.81	2677.23
477.17	2798.59
477.52	2750.04
477.88	2757.32
478.23	2684.51
478.59	2767.03
478.94	2759.75
479.30	2740.33
479.65	2754.90
480.01	2723.34
480.36	2716.06
480.72	2740.33
481.07	2764.61
481.42	2742.76
481.78	2747.62
482.13	2757.32
482.49	2759.75
482.84	2762.18
483.20	2757.32
483.55	2750.04
483.90	2754.90
484.26	2745.19
484.61	2694.22
484.96	2725.77
485.32	2774.32
485.67	2713.63
486.03	2771.89
486.38	2767.03
486.73	2757.32
487.09	2791.31
487.44	2762.18
487.79	2771.89
488.15	2745.19
488.50	2706.35
488.85	2835.00
489.21	2718.49
489.56	2737.91
489.91	2723.34
490.27	2771.89
490.62	2774.32
490.97	2740.33
491.33	2691.79
491.68	2815.58
492.03	2733.05
492.39	2723.34
492.74	2740.33
493.09	2662.66
493.44	2701.50
493.80	2737.91
494.15	2820.43
494.50	2706.35
494.85	2730.62
495.21	2686.94
495.56	2716.06
495.91	2699.07
496.26	2776.74
496.62	2754.90
496.97	2713.63
497.32	2703.93
497.67	2745.19
498.03	2725.77
498.38	2733.05
498.73	2771.89
499.08	2771.89
499.43	2723.34
499.79	2771.89
500.14	2810.72
500.49	2737.91
500.84	2752.47
501.19	2781.60
501.54	2728.20
501.90	2820.43
502.25	2774.32
502.60	2825.29
502.95	2699.07
503.30	2720.92
503.65	2679.65
504.00	2694.22
504.36	2740.33
504.71	2725.77
505.06	2754.90
505.41	2798.59
505.76	2728.20
506.11	2691.79
506.46	2679.65
506.81	2747.62
507.16	2779.17
507.52	2730.62
507.87	2750.04
508.22	2803.44
508.57	2720.92
508.92	2740.33
509.27	2740.33
509.62	2779.17
509.97	2767.03
510.32	2740.33
510.67	2716.06
511.02	2774.32
511.37	2740.33
511.72	2735.48
512.07	2750.04
512.42	2810.72
512.77	2767.03
513.12	2720.92
513.47	2713.63
513.82	2784.02
514.17	2767.03
514.52	2720.92
514.87	2691.79
515.22	2718.49
515.57	2747.62
515.92	2716.06
516.27	2662.66
516.62	2750.04
516.97	2764.61
517.32	2779.17
517.67	2689.36
518.02	2740.33
518.37	2754.90
518.72	2791.31
519.07	2643.24
519.42	2643.24
519.77	2735.48
520.12	2733.05
520.46	2703.93
520.81	2711.21
521.16	2740.33
521.51	2762.18
521.86	2805.87
522.21	2703.93
522.56	2754.90
522.91	2691.79
523.26	2708.78
523.60	2696.64
523.95	2728.20
524.30	2737.91
524.65	2740.33
525.00	2740.33
525.35	2747.62
525.70	2764.61
526.04	2696.64
526.39	2706.35
526.74	2759.75
527.09	2784.02
527.44	2776.74
527.78	2742.76
528.13	2752.47
528.48	2696.64
528.83	2752.47
529.18	2730.62
529.52	2650.53
529.87	2733.05
530.22	2728.20
530.57	2737.91
530.92	2774.32
531.26	2837.42
531.61	2757.32
531.96	2623.83
532.31	2696.64
532.65	2767.03
533.00	2856.84
533.35	2667.52
533.70	2716.06
534.04	2703.93
534.39	2735.48
534.74	2808.30
535.08	2684.51
535.43	2752.47
535.78	2767.03
536.13	2752.47
536.47	2720.92
536.82	2733.05
537.17	2771.89
537.51	2759.75
537.86	2728.20
538.21	2701.50
538.55	2747.62
538.90	2757.32
539.25	2788.88
539.59	2716.06
539.94	2774.32
540.29	2818.00
540.63	2682.08
540.98	2769.46
541.32	2665.09
541.67	2742.76
542.02	2740.33
542.36	2764.61
542.71	2808.30
543.05	2737.91
543.40	2747.62
543.75	2720.92
544.09	2849.56
544.44	2706.35
544.78	2643.24
545.13	2711.21
545.48	2745.19
545.82	2694.22
546.17	2728.20
546.51	2750.04
546.86	2730.62
547.20	2781.60
547.55	2723.34
547.89	2740.33
548.24	2745.19
548.58	2716.06
548.93	2810.72
549.28	2771.89
549.62	2711.21
549.97	2718.49
550.31	2781.60
550.66	2737.91
551.00	2742.76
551.34	2750.04
551.69	2793.73
552.03	2771.89
552.38	2759.75
552.72	2752.47
553.07	2788.88
553.41	2752.47
553.76	2805.87
554.10	2764.61
554.45	2713.63
554.79	2754.90
555.14	2752.47
555.48	2720.92
555.82	2708.78
556.17	2786.45
556.51	2791.31
556.86	2728.20
557.20	2784.02
557.54	2754.90
557.89	2808.30
558.23	2747.62
558.58	2716.06
558.92	2762.18
559.26	2694.22
559.61	2759.75
559.95	2759.75
560.29	2767.03
560.64	2674.80
560.98	2703.93
561.33	2793.73
561.67	2696.64
562.01	2740.33
562.36	2762.18
562.70	2708.78
563.04	2771.89
563.39	2781.60
563.73	2822.86
564.07	2742.76
564.41	2740.33
564.76	2684.51
565.10	2767.03
565.44	2718.49
565.79	2733.05
566.13	2759.75
566.47	2801.01
566.81	2754.90
567.16	2696.64
567.50	2694.22
567.84	2745.19
568.18	2791.31
568.53	2723.34
568.87	2733.05
569.21	2737.91
569.55	2703.93
569.90	2747.62
570.24	2830.14
570.58	2771.89
570.92	2788.88
571.27	2810.72
571.61	2740.33
571.95	2762.18
572.29	2757.32
572.63	2725.77
572.97	2767.03
573.32	2730.62
573.66	2796.16
574.00	2754.90
574.34	2747.62
574.68	2716.06
575.02	2691.79
575.37	2798.59
575.71	2757.32
576.05	2837.42
576.39	2757.32
576.73	2696.64
577.07	2769.46
577.41	2774.32
577.76	2696.64
578.10	2740.33
578.44	2757.32
578.78	2759.75
579.12	2752.47
579.46	2820.43
579.80	2784.02
580.14	2822.86
580.48	2774.32
580.82	2854.41
581.16	2752.47
581.51	2801.01
581.85	2650.53
582.19	2781.60
582.53	2706.35
582.87	2747.62
583.21	2762.18
583.55	2798.59
583.89	2776.74
584.23	2830.14
584.57	2701.50
584.91	2723.34
585.25	2808.30
585.59	2866.55
585.93	2781.60
586.27	2754.90
586.61	2703.93
586.95	2784.02
587.29	2842.28
587.63	2844.70
587.97	2767.03
588.31	2781.60
588.65	2854.41
588.99	2786.45
589.33	2730.62
589.67	2779.17
590.01	2815.58
590.34	2808.30
590.68	2798.59
591.02	2832.57
591.36	2779.17
591.70	2779.17
592.04	2866.55
592.38	2890.82
592.72	2810.72
593.06	2837.42
593.40	2769.46
593.74	2764.61
594.07	2878.69
594.41	2825.29
594.75	2876.26
595.09	2851.99
595.43	2849.56
595.77	2805.87
596.11	2788.88
596.44	2837.42
596.78	2781.60
597.12	2883.54
597.46	2866.55
597.80	2808.30
598.14	2837.42
598.47	2927.23
598.81	2876.26
599.15	2885.97
599.49	2851.99
599.83	2813.15
600.17	2878.69
600.50	2827.71
600.84	2832.57
601.18	2854.41
601.52	2849.56
601.85	2912.67
602.19	2900.53
602.53	2893.25
602.87	2919.95
603.20	2893.25
603.54	2929.66
603.88	2985.48
604.22	2978.20
604.55	2990.34
604.89	2876.26
605.23	2975.77
605.57	2990.34
605.90	2956.36
606.24	2983.06
606.58	2915.09
606.91	3038.88
607.25	3046.16
607.59	3072.86
607.92	3065.58
608.26	3089.85
608.60	3172.38
608.94	3082.57
609.27	3101.99
609.61	3179.66
609.94	3114.13
610.28	3131.12
610.62	3101.99
610.95	3150.53
611.29	3184.52
611.63	3208.79
611.96	3247.62
612.30	3286.46
612.64	3252.48
612.97	3293.74
613.31	3247.62
613.64	3315.59
613.98	3242.77
614.32	3327.72
614.65	3405.39
614.99	3354.42
615.32	3383.55
615.66	3492.77
615.99	3446.66
616.33	3427.24
616.67	3490.35
617.00	3582.58
617.34	3592.29
617.67	3546.17
618.01	3633.55
618.34	3669.96
618.68	3638.41
619.01	3818.02
619.35	3798.60
619.68	3861.71
620.02	3832.58
620.35	3791.32
620.69	3924.82
621.02	3929.67
621.36	4019.48
621.69	4009.77
622.03	4116.57
622.36	4162.69
622.70	4262.20
623.03	4274.34
623.37	4269.48
623.70	4415.12
624.04	4514.63
624.37	4546.19
624.70	4555.90
625.04	4645.70
625.37	4747.65
625.71	4788.91
626.04	4822.89
626.38	4866.58
626.71	5019.50
627.04	5041.34
627.38	5104.45
627.71	5082.60
628.05	5318.04
628.38	5303.48
628.71	5347.17
629.05	5543.78
629.38	5655.43
629.71	5946.69
630.05	5818.05
630.38	6136.02
630.72	6080.19
631.05	6276.80
631.38	6388.45
631.72	6337.48
632.05	6667.58
632.38	6890.88
632.72	6883.60
633.05	6992.83
633.38	7155.45
633.71	7388.46
634.05	7524.39
634.38	7696.72
634.71	7900.61
635.05	8153.04
635.38	8075.37
635.71	8521.98
636.04	8708.87
636.38	8888.49
636.71	9111.79
637.04	9252.57
637.38	9582.67
637.71	9764.72
638.04	9995.30
638.37	10228.31
638.70	10555.99
639.04	10832.69
639.37	11126.39
639.70	11432.22
640.03	11412.80
640.37	11958.92
640.70	12257.47
641.03	12381.26
641.36	12718.64
641.69	13170.11
642.03	13539.05
642.36	13607.01
642.69	14284.20
643.02	14924.99
643.35	14908.00
643.68	15378.88
644.02	15738.11
644.35	16012.38
644.68	16891.04
645.01	16844.92
645.34	17560.95
645.67	17842.51
646.00	18628.93
646.33	18980.88
646.67	19269.72
647.00	20073.13
647.33	20582.84
647.66	21422.66
647.99	21672.67
648.32	22296.46
648.65	22694.53
648.98	23342.60
649.31	24267.37
649.64	24658.15
649.97	25879.04
650.31	26063.51
650.64	27090.23
650.97	27748.00
651.30	28505.30
651.63	29024.72
651.96	29723.76
652.29	30964.07
652.62	31609.72
652.95	32769.93
653.28	33393.72
